PE IR       SUBTECH     SPECTRUM    ASCII       PEDS        4.00        
   -1
K2-ponavljanjekesperimenta-izvaðeno iz GB-mono.ASC
22/06/28
09:36:41.00
22/06/28
09:36:41.00
Administrator
Sample 094 By Administrator Date Tuesday, June 28 2022
400.000000
#HDR
-1
-1
#GR
cm-1
%T
1.0
0.0
4000.000000
-1.000000
3601
8
99.106924
47.371667
#DATA
4000.000000	98.389046
3999.000000	98.389122
3998.000000	98.388770
3997.000000	98.388838
3996.000000	98.389978
3995.000000	98.391864
3994.000000	98.394088
3993.000000	98.396552
3992.000000	98.399587
3991.000000	98.403419
3990.000000	98.407723
3989.000000	98.411904
3988.000000	98.415763
3987.000000	98.419612
3986.000000	98.423672
3985.000000	98.427549
3984.000000	98.430596
3983.000000	98.432720
3982.000000	98.434548
3981.000000	98.436512
3980.000000	98.437782
3979.000000	98.436690
3978.000000	98.432564
3977.000000	98.427068
3976.000000	98.423446
3975.000000	98.423912
3974.000000	98.427964
3973.000000	98.433124
3972.000000	98.437009
3971.000000	98.438914
3970.000000	98.439562
3969.000000	98.440022
3968.000000	98.441073
3967.000000	98.442953
3966.000000	98.445335
3965.000000	98.447544
3964.000000	98.448956
3963.000000	98.449460
3962.000000	98.449716
3961.000000	98.450615
3960.000000	98.452561
3959.000000	98.455396
3958.000000	98.458538
3957.000000	98.461265
3956.000000	98.463235
3955.000000	98.464582
3954.000000	98.465545
3953.000000	98.465824
3952.000000	98.464591
3951.000000	98.461568
3950.000000	98.457729
3949.000000	98.454889
3948.000000	98.454452
3947.000000	98.456700
3946.000000	98.461354
3945.000000	98.467958
3944.000000	98.475503
3943.000000	98.481878
3942.000000	98.485144
3941.000000	98.485706
3940.000000	98.485997
3939.000000	98.488002
3938.000000	98.491315
3937.000000	98.493727
3936.000000	98.493631
3935.000000	98.491555
3934.000000	98.490336
3933.000000	98.493148
3932.000000	98.500774
3931.000000	98.510273
3930.000000	98.517064
3929.000000	98.519424
3928.000000	98.519362
3927.000000	98.520345
3926.000000	98.524331
3925.000000	98.529695
3924.000000	98.532573
3923.000000	98.530914
3922.000000	98.525996
3921.000000	98.520730
3920.000000	98.517447
3919.000000	98.517273
3918.000000	98.520677
3917.000000	98.526782
3916.000000	98.533218
3915.000000	98.538045
3914.000000	98.541380
3913.000000	98.544404
3912.000000	98.547379
3911.000000	98.549399
3910.000000	98.549404
3909.000000	98.547145
3908.000000	98.542947
3907.000000	98.536727
3906.000000	98.528061
3905.000000	98.517450
3904.000000	98.507332
3903.000000	98.501924
3902.000000	98.504776
3901.000000	98.515662
3900.000000	98.530181
3899.000000	98.541918
3898.000000	98.547303
3897.000000	98.547397
3896.000000	98.544839
3895.000000	98.542235
3894.000000	98.541830
3893.000000	98.544342
3892.000000	98.547392
3891.000000	98.546936
3890.000000	98.541875
3889.000000	98.534392
3888.000000	98.526900
3887.000000	98.522049
3886.000000	98.520975
3885.000000	98.522421
3884.000000	98.525134
3883.000000	98.530296
3882.000000	98.539187
3881.000000	98.548546
3880.000000	98.551941
3879.000000	98.548536
3878.000000	98.544025
3877.000000	98.543372
3876.000000	98.547693
3875.000000	98.553576
3874.000000	98.555279
3873.000000	98.550140
3872.000000	98.541536
3871.000000	98.535008
3870.000000	98.531182
3869.000000	98.525912
3868.000000	98.518344
3867.000000	98.512060
3866.000000	98.511851
3865.000000	98.519445
3864.000000	98.530461
3863.000000	98.538530
3862.000000	98.541401
3861.000000	98.541287
3860.000000	98.540968
3859.000000	98.541705
3858.000000	98.542698
3857.000000	98.541984
3856.000000	98.537672
3855.000000	98.532748
3854.000000	98.530182
3853.000000	98.529264
3852.000000	98.528218
3851.000000	98.527790
3850.000000	98.527710
3849.000000	98.528517
3848.000000	98.529989
3847.000000	98.532176
3846.000000	98.535150
3845.000000	98.538553
3844.000000	98.541372
3843.000000	98.543216
3842.000000	98.544629
3841.000000	98.546274
3840.000000	98.547858
3839.000000	98.547714
3838.000000	98.545251
3837.000000	98.541915
3836.000000	98.539839
3835.000000	98.539550
3834.000000	98.539745
3833.000000	98.538986
3832.000000	98.536997
3831.000000	98.534913
3830.000000	98.534780
3829.000000	98.538254
3828.000000	98.544776
3827.000000	98.550741
3826.000000	98.551472
3825.000000	98.545131
3824.000000	98.534716
3823.000000	98.527537
3822.000000	98.529005
3821.000000	98.535805
3820.000000	98.541551
3819.000000	98.546915
3818.000000	98.554403
3817.000000	98.564241
3816.000000	98.572964
3815.000000	98.576546
3814.000000	98.575438
3813.000000	98.572339
3812.000000	98.568959
3811.000000	98.565852
3810.000000	98.563279
3809.000000	98.561668
3808.000000	98.560688
3807.000000	98.558484
3806.000000	98.554343
3805.000000	98.550646
3804.000000	98.550516
3803.000000	98.555778
3802.000000	98.564286
3801.000000	98.569834
3800.000000	98.571165
3799.000000	98.573643
3798.000000	98.579721
3797.000000	98.585824
3796.000000	98.586499
3795.000000	98.581575
3794.000000	98.575999
3793.000000	98.573866
3792.000000	98.575317
3791.000000	98.577765
3790.000000	98.578680
3789.000000	98.578134
3788.000000	98.578483
3787.000000	98.581559
3786.000000	98.586352
3785.000000	98.589423
3784.000000	98.588161
3783.000000	98.583354
3782.000000	98.578206
3781.000000	98.575503
3780.000000	98.575772
3779.000000	98.577433
3778.000000	98.579118
3777.000000	98.580111
3776.000000	98.579486
3775.000000	98.576163
3774.000000	98.570369
3773.000000	98.564209
3772.000000	98.561254
3771.000000	98.564517
3770.000000	98.572743
3769.000000	98.580868
3768.000000	98.584918
3767.000000	98.583891
3766.000000	98.579029
3765.000000	98.572940
3764.000000	98.567897
3763.000000	98.564856
3762.000000	98.563978
3761.000000	98.565192
3760.000000	98.567533
3759.000000	98.569370
3758.000000	98.570007
3757.000000	98.570042
3756.000000	98.569933
3755.000000	98.568887
3754.000000	98.565159
3753.000000	98.557411
3752.000000	98.546384
3751.000000	98.534912
3750.000000	98.526386
3749.000000	98.523838
3748.000000	98.528352
3747.000000	98.537872
3746.000000	98.549133
3745.000000	98.556331
3744.000000	98.554976
3743.000000	98.548878
3742.000000	98.542750
3741.000000	98.536565
3740.000000	98.529104
3739.000000	98.519775
3738.000000	98.510466
3737.000000	98.505744
3736.000000	98.508929
3735.000000	98.515848
3734.000000	98.518103
3733.000000	98.514893
3732.000000	98.512137
3731.000000	98.513237
3730.000000	98.516463
3729.000000	98.518432
3728.000000	98.518466
3727.000000	98.518892
3726.000000	98.521825
3725.000000	98.527041
3724.000000	98.533170
3723.000000	98.538965
3722.000000	98.543718
3721.000000	98.547705
3720.000000	98.551354
3719.000000	98.553892
3718.000000	98.554323
3717.000000	98.552479
3716.000000	98.549118
3715.000000	98.544684
3714.000000	98.538959
3713.000000	98.532158
3712.000000	98.525522
3711.000000	98.521668
3710.000000	98.521676
3709.000000	98.524833
3708.000000	98.529646
3707.000000	98.533283
3706.000000	98.533448
3705.000000	98.530072
3704.000000	98.525065
3703.000000	98.520508
3702.000000	98.516495
3701.000000	98.512204
3700.000000	98.507973
3699.000000	98.505059
3698.000000	98.504317
3697.000000	98.505438
3696.000000	98.506552
3695.000000	98.505506
3694.000000	98.502220
3693.000000	98.499359
3692.000000	98.499281
3691.000000	98.501179
3690.000000	98.501336
3689.000000	98.497052
3688.000000	98.490152
3687.000000	98.485763
3686.000000	98.486162
3685.000000	98.490119
3684.000000	98.494721
3683.000000	98.497372
3682.000000	98.496905
3681.000000	98.493390
3680.000000	98.487365
3679.000000	98.479159
3678.000000	98.469487
3677.000000	98.461799
3676.000000	98.457232
3675.000000	98.450080
3674.000000	98.438100
3673.000000	98.427530
3672.000000	98.423046
3671.000000	98.428078
3670.000000	98.439579
3669.000000	98.447308
3668.000000	98.447219
3667.000000	98.443176
3666.000000	98.438010
3665.000000	98.432894
3664.000000	98.428696
3663.000000	98.426206
3662.000000	98.425440
3661.000000	98.425321
3660.000000	98.424355
3659.000000	98.421167
3658.000000	98.415108
3657.000000	98.406320
3656.000000	98.396176
3655.000000	98.387282
3654.000000	98.381144
3653.000000	98.377195
3652.000000	98.372791
3651.000000	98.363960
3650.000000	98.351331
3649.000000	98.343383
3648.000000	98.341081
3647.000000	98.337139
3646.000000	98.329304
3645.000000	98.320387
3644.000000	98.312734
3643.000000	98.306317
3642.000000	98.299598
3641.000000	98.290614
3640.000000	98.278604
3639.000000	98.264353
3638.000000	98.248941
3637.000000	98.232257
3636.000000	98.212629
3635.000000	98.188842
3634.000000	98.161691
3633.000000	98.132364
3632.000000	98.098548
3631.000000	98.053971
3630.000000	97.995709
3629.000000	97.934508
3628.000000	97.887564
3627.000000	97.858721
3626.000000	97.838549
3625.000000	97.817405
3624.000000	97.791735
3623.000000	97.761032
3622.000000	97.722795
3621.000000	97.671424
3620.000000	97.603032
3619.000000	97.523506
3618.000000	97.446751
3617.000000	97.381484
3616.000000	97.324194
3615.000000	97.265709
3614.000000	97.200010
3613.000000	97.128923
3612.000000	97.059161
3611.000000	96.994977
3610.000000	96.936046
3609.000000	96.881346
3608.000000	96.830779
3607.000000	96.783800
3606.000000	96.738436
3605.000000	96.691325
3604.000000	96.637059
3603.000000	96.567673
3602.000000	96.476003
3601.000000	96.361982
3600.000000	96.232442
3599.000000	96.092506
3598.000000	95.937899
3597.000000	95.756477
3596.000000	95.539173
3595.000000	95.294155
3594.000000	95.049347
3593.000000	94.835988
3592.000000	94.668764
3591.000000	94.541041
3590.000000	94.435978
3589.000000	94.345819
3588.000000	94.289859
3587.000000	94.304065
3586.000000	94.404219
3585.000000	94.577110
3584.000000	94.798554
3583.000000	95.045145
3582.000000	95.298200
3581.000000	95.544440
3580.000000	95.775304
3579.000000	95.986343
3578.000000	96.177135
3577.000000	96.349521
3576.000000	96.504917
3575.000000	96.643358
3574.000000	96.764802
3573.000000	96.870432
3572.000000	96.962608
3571.000000	97.044111
3570.000000	97.117600
3569.000000	97.185133
3568.000000	97.247249
3567.000000	97.302957
3566.000000	97.350186
3565.000000	97.389617
3564.000000	97.425219
3563.000000	97.460703
3562.000000	97.497578
3561.000000	97.535565
3560.000000	97.572876
3559.000000	97.606850
3558.000000	97.635580
3557.000000	97.659043
3556.000000	97.678867
3555.000000	97.697293
3554.000000	97.715898
3553.000000	97.734503
3552.000000	97.751376
3551.000000	97.765321
3550.000000	97.776602
3549.000000	97.785890
3548.000000	97.793133
3547.000000	97.798827
3546.000000	97.804933
3545.000000	97.813246
3544.000000	97.823511
3543.000000	97.834471
3542.000000	97.845152
3541.000000	97.854824
3540.000000	97.862772
3539.000000	97.868508
3538.000000	97.872526
3537.000000	97.875760
3536.000000	97.878619
3535.000000	97.880771
3534.000000	97.881842
3533.000000	97.881802
3532.000000	97.880837
3531.000000	97.879734
3530.000000	97.879565
3529.000000	97.880534
3528.000000	97.881139
3527.000000	97.879645
3526.000000	97.876332
3525.000000	97.873688
3524.000000	97.874133
3523.000000	97.877898
3522.000000	97.883187
3521.000000	97.887956
3520.000000	97.890986
3519.000000	97.891876
3518.000000	97.891267
3517.000000	97.890660
3516.000000	97.891424
3515.000000	97.894028
3514.000000	97.897881
3513.000000	97.901731
3512.000000	97.904252
3511.000000	97.904944
3510.000000	97.904727
3509.000000	97.905265
3508.000000	97.907258
3507.000000	97.909616
3506.000000	97.910186
3505.000000	97.907645
3504.000000	97.903210
3503.000000	97.900231
3502.000000	97.901024
3501.000000	97.904820
3500.000000	97.908974
3499.000000	97.911411
3498.000000	97.912167
3497.000000	97.912819
3496.000000	97.914720
3495.000000	97.917888
3494.000000	97.921479
3493.000000	97.924470
3492.000000	97.925738
3491.000000	97.924262
3490.000000	97.919779
3489.000000	97.913500
3488.000000	97.907745
3487.000000	97.904650
3486.000000	97.904991
3485.000000	97.907598
3484.000000	97.909801
3483.000000	97.909168
3482.000000	97.905623
3481.000000	97.901638
3480.000000	97.899694
3479.000000	97.899991
3478.000000	97.900686
3477.000000	97.899876
3476.000000	97.896881
3475.000000	97.892016
3474.000000	97.885989
3473.000000	97.879595
3472.000000	97.873686
3471.000000	97.868871
3470.000000	97.865164
3469.000000	97.862159
3468.000000	97.859620
3467.000000	97.857597
3466.000000	97.855838
3465.000000	97.853113
3464.000000	97.847636
3463.000000	97.838547
3462.000000	97.827045
3461.000000	97.815743
3460.000000	97.806792
3459.000000	97.800718
3458.000000	97.796624
3457.000000	97.792859
3456.000000	97.787928
3455.000000	97.781365
3454.000000	97.773984
3453.000000	97.767052
3452.000000	97.761051
3451.000000	97.755738
3450.000000	97.750876
3449.000000	97.746329
3448.000000	97.741388
3447.000000	97.734804
3446.000000	97.726031
3445.000000	97.715988
3444.000000	97.706101
3443.000000	97.696826
3442.000000	97.687475
3441.000000	97.677175
3440.000000	97.665855
3439.000000	97.654525
3438.000000	97.644601
3437.000000	97.636669
3436.000000	97.629939
3435.000000	97.622968
3434.000000	97.614842
3433.000000	97.605656
3432.000000	97.596007
3431.000000	97.586589
3430.000000	97.577791
3429.000000	97.569212
3428.000000	97.559707
3427.000000	97.548606
3426.000000	97.536977
3425.000000	97.527026
3424.000000	97.520016
3423.000000	97.515035
3422.000000	97.510012
3421.000000	97.503639
3420.000000	97.496158
3419.000000	97.488500
3418.000000	97.480914
3417.000000	97.472549
3416.000000	97.462282
3415.000000	97.449892
3414.000000	97.436254
3413.000000	97.422316
3412.000000	97.408210
3411.000000	97.393712
3410.000000	97.379143
3409.000000	97.365169
3408.000000	97.351833
3407.000000	97.338437
3406.000000	97.324576
3405.000000	97.310598
3404.000000	97.296781
3403.000000	97.282538
3402.000000	97.266997
3401.000000	97.250183
3400.000000	97.233117
3399.000000	97.216854
3398.000000	97.201606
3397.000000	97.186566
3396.000000	97.170122
3395.000000	97.150577
3394.000000	97.127427
3393.000000	97.102299
3392.000000	97.078231
3391.000000	97.057464
3390.000000	97.039885
3389.000000	97.023422
3388.000000	97.005515
3387.000000	96.984329
3386.000000	96.959278
3385.000000	96.930909
3384.000000	96.900402
3383.000000	96.869011
3382.000000	96.837626
3381.000000	96.806471
3380.000000	96.774982
3379.000000	96.742267
3378.000000	96.707908
3377.000000	96.672224
3376.000000	96.635457
3375.000000	96.597132
3374.000000	96.556583
3373.000000	96.513933
3372.000000	96.470128
3371.000000	96.426037
3370.000000	96.381966
3369.000000	96.337765
3368.000000	96.292900
3367.000000	96.246474
3366.000000	96.197633
3365.000000	96.145973
3364.000000	96.091103
3363.000000	96.032048
3362.000000	95.967952
3361.000000	95.899426
3360.000000	95.828569
3359.000000	95.757198
3358.000000	95.685302
3357.000000	95.611401
3356.000000	95.533732
3355.000000	95.451029
3354.000000	95.362648
3353.000000	95.268548
3352.000000	95.169277
3351.000000	95.065562
3350.000000	94.957745
3349.000000	94.845486
3348.000000	94.727690
3347.000000	94.603157
3346.000000	94.471347
3345.000000	94.332742
3344.000000	94.188204
3343.000000	94.038160
3342.000000	93.882923
3341.000000	93.723518
3340.000000	93.561512
3339.000000	93.397998
3338.000000	93.233087
3337.000000	93.066739
3336.000000	92.899569
3335.000000	92.732802
3334.000000	92.567967
3333.000000	92.406954
3332.000000	92.251953
3331.000000	92.105240
3330.000000	91.969514
3329.000000	91.848385
3328.000000	91.746753
3327.000000	91.669424
3326.000000	91.619856
3325.000000	91.599872
3324.000000	91.609520
3323.000000	91.647322
3322.000000	91.710435
3321.000000	91.795329
3320.000000	91.899567
3319.000000	92.021655
3318.000000	92.160369
3317.000000	92.313190
3316.000000	92.475760
3315.000000	92.643264
3314.000000	92.812291
3313.000000	92.981894
3312.000000	93.152462
3311.000000	93.323512
3310.000000	93.492980
3309.000000	93.658525
3308.000000	93.818934
3307.000000	93.973732
3306.000000	94.121738
3305.000000	94.260716
3304.000000	94.389181
3303.000000	94.507965
3302.000000	94.619960
3301.000000	94.728350
3300.000000	94.834882
3299.000000	94.939550
3298.000000	95.041148
3297.000000	95.137934
3296.000000	95.228214
3295.000000	95.310688
3294.000000	95.384952
3293.000000	95.451750
3292.000000	95.512331
3291.000000	95.567471
3290.000000	95.616763
3289.000000	95.659336
3288.000000	95.694973
3287.000000	95.724333
3286.000000	95.748308
3285.000000	95.766828
3284.000000	95.778419
3283.000000	95.780765
3282.000000	95.772122
3281.000000	95.752867
3280.000000	95.725202
3279.000000	95.690874
3278.000000	95.649043
3277.000000	95.596393
3276.000000	95.529753
3275.000000	95.448088
3274.000000	95.352340
3273.000000	95.244388
3272.000000	95.126269
3271.000000	95.000400
3270.000000	94.869309
3269.000000	94.735087
3268.000000	94.599547
3267.000000	94.464983
3266.000000	94.334897
3265.000000	94.213832
3264.000000	94.106332
3263.000000	94.015722
3262.000000	93.944200
3261.000000	93.893067
3260.000000	93.863072
3259.000000	93.854236
3258.000000	93.865134
3257.000000	93.893419
3256.000000	93.936116
3255.000000	93.990213
3254.000000	94.053445
3253.000000	94.124337
3252.000000	94.201929
3251.000000	94.284533
3250.000000	94.369044
3249.000000	94.451863
3248.000000	94.530532
3247.000000	94.604686
3246.000000	94.675610
3245.000000	94.745251
3244.000000	94.815340
3243.000000	94.886799
3242.000000	94.959411
3241.000000	95.032040
3240.000000	95.103270
3239.000000	95.171669
3238.000000	95.235764
3237.000000	95.294379
3236.000000	95.347693
3235.000000	95.397778
3234.000000	95.447526
3233.000000	95.498976
3232.000000	95.552546
3231.000000	95.607483
3230.000000	95.662410
3229.000000	95.715524
3228.000000	95.765204
3227.000000	95.810962
3226.000000	95.853767
3225.000000	95.895227
3224.000000	95.936319
3223.000000	95.976865
3222.000000	96.015832
3221.000000	96.052250
3220.000000	96.086376
3219.000000	96.120010
3218.000000	96.155243
3217.000000	96.192438
3216.000000	96.229731
3215.000000	96.264824
3214.000000	96.297236
3213.000000	96.328504
3212.000000	96.360216
3211.000000	96.392273
3210.000000	96.423102
3209.000000	96.451507
3208.000000	96.478291
3207.000000	96.505928
3206.000000	96.536278
3205.000000	96.568533
3204.000000	96.599840
3203.000000	96.628113
3202.000000	96.653775
3201.000000	96.678262
3200.000000	96.701750
3199.000000	96.723229
3198.000000	96.742555
3197.000000	96.761081
3196.000000	96.779970
3195.000000	96.798841
3194.000000	96.816688
3193.000000	96.833386
3192.000000	96.849729
3191.000000	96.866365
3190.000000	96.883269
3189.000000	96.900122
3188.000000	96.916743
3187.000000	96.933336
3186.000000	96.950454
3185.000000	96.968454
3184.000000	96.986800
3183.000000	97.004241
3182.000000	97.020012
3181.000000	97.034440
3180.000000	97.048097
3179.000000	97.060830
3178.000000	97.072137
3177.000000	97.082163
3176.000000	97.091722
3175.000000	97.101443
3174.000000	97.111465
3173.000000	97.121858
3172.000000	97.132751
3171.000000	97.144062
3170.000000	97.155595
3169.000000	97.167547
3168.000000	97.180325
3167.000000	97.193649
3166.000000	97.206295
3165.000000	97.217082
3164.000000	97.226063
3163.000000	97.234469
3162.000000	97.243729
3161.000000	97.254608
3160.000000	97.267025
3159.000000	97.280240
3158.000000	97.293174
3157.000000	97.304908
3156.000000	97.315229
3155.000000	97.324836
3154.000000	97.334918
3153.000000	97.346509
3152.000000	97.360005
3151.000000	97.375027
3150.000000	97.390598
3149.000000	97.405661
3148.000000	97.419803
3147.000000	97.433507
3146.000000	97.447533
3145.000000	97.461979
3144.000000	97.476181
3143.000000	97.489532
3142.000000	97.502234
3141.000000	97.515155
3140.000000	97.529132
3139.000000	97.544483
3138.000000	97.560924
3137.000000	97.577789
3136.000000	97.594440
3135.000000	97.610656
3134.000000	97.626591
3133.000000	97.642319
3132.000000	97.657649
3131.000000	97.672590
3130.000000	97.687618
3129.000000	97.703027
3128.000000	97.718209
3127.000000	97.732121
3126.000000	97.744413
3125.000000	97.755695
3124.000000	97.766835
3123.000000	97.778386
3122.000000	97.790556
3121.000000	97.803105
3120.000000	97.815247
3119.000000	97.826233
3118.000000	97.836245
3117.000000	97.846382
3116.000000	97.857608
3115.000000	97.869857
3114.000000	97.882146
3113.000000	97.893166
3112.000000	97.902126
3111.000000	97.909695
3110.000000	97.918090
3109.000000	97.929256
3108.000000	97.942569
3107.000000	97.954895
3106.000000	97.963269
3105.000000	97.967196
3104.000000	97.968443
3103.000000	97.969336
3102.000000	97.971516
3101.000000	97.975575
3100.000000	97.981138
3099.000000	97.987410
3098.000000	97.993941
3097.000000	98.000725
3096.000000	98.007417
3095.000000	98.012812
3094.000000	98.015616
3093.000000	98.015740
3092.000000	98.014661
3091.000000	98.014571
3090.000000	98.017140
3089.000000	98.022577
3088.000000	98.029391
3087.000000	98.035210
3086.000000	98.038346
3085.000000	98.038883
3084.000000	98.038164
3083.000000	98.037284
3082.000000	98.036297
3081.000000	98.034843
3080.000000	98.033176
3079.000000	98.032289
3078.000000	98.033053
3077.000000	98.035407
3076.000000	98.038392
3075.000000	98.040930
3074.000000	98.042512
3073.000000	98.043288
3072.000000	98.043676
3071.000000	98.044113
3070.000000	98.045136
3069.000000	98.047342
3068.000000	98.050923
3067.000000	98.055176
3066.000000	98.058873
3065.000000	98.061444
3064.000000	98.063534
3063.000000	98.065926
3062.000000	98.068142
3061.000000	98.068866
3060.000000	98.068026
3059.000000	98.067682
3058.000000	98.070064
3057.000000	98.075034
3056.000000	98.080255
3055.000000	98.083871
3054.000000	98.086146
3053.000000	98.088425
3052.000000	98.091353
3051.000000	98.094632
3050.000000	98.097679
3049.000000	98.099839
3048.000000	98.100517
3047.000000	98.099965
3046.000000	98.099798
3045.000000	98.101887
3044.000000	98.106551
3043.000000	98.112265
3042.000000	98.117280
3041.000000	98.120969
3040.000000	98.123552
3039.000000	98.125078
3038.000000	98.125298
3037.000000	98.124238
3036.000000	98.122360
3035.000000	98.120226
3034.000000	98.118195
3033.000000	98.116484
3032.000000	98.115197
3031.000000	98.114336
3030.000000	98.113901
3029.000000	98.113881
3028.000000	98.113925
3027.000000	98.113202
3026.000000	98.111021
3025.000000	98.107608
3024.000000	98.104010
3023.000000	98.101052
3022.000000	98.098585
3021.000000	98.095793
3020.000000	98.092095
3019.000000	98.087591
3018.000000	98.082861
3017.000000	98.078533
3016.000000	98.074861
3015.000000	98.071207
3014.000000	98.065845
3013.000000	98.056992
3012.000000	98.044755
3011.000000	98.031899
3010.000000	98.021963
3009.000000	98.016335
3008.000000	98.013414
3007.000000	98.010600
3006.000000	98.006544
3005.000000	98.001373
3004.000000	97.995445
3003.000000	97.988675
3002.000000	97.980947
3001.000000	97.972512
3000.000000	97.963750
2999.000000	97.954911
2998.000000	97.946304
2997.000000	97.938516
2996.000000	97.932139
2995.000000	97.927023
2994.000000	97.921800
2993.000000	97.914417
2992.000000	97.903796
2991.000000	97.891297
2990.000000	97.880248
2989.000000	97.873443
2988.000000	97.870924
2987.000000	97.870211
2986.000000	97.868520
2985.000000	97.864527
2984.000000	97.858413
2983.000000	97.850983
2982.000000	97.842860
2981.000000	97.833918
2980.000000	97.823036
2979.000000	97.808666
2978.000000	97.789754
2977.000000	97.766109
2976.000000	97.737956
2975.000000	97.705488
2974.000000	97.668927
2973.000000	97.628444
2972.000000	97.583893
2971.000000	97.534834
2970.000000	97.480989
2969.000000	97.422584
2968.000000	97.360126
2967.000000	97.294372
2966.000000	97.226675
2965.000000	97.159133
2964.000000	97.093930
2963.000000	97.032144
2962.000000	96.972644
2961.000000	96.911722
2960.000000	96.843600
2959.000000	96.762237
2958.000000	96.662889
2957.000000	96.542488
2956.000000	96.399271
2955.000000	96.233376
2954.000000	96.049226
2953.000000	95.857220
2952.000000	95.672435
2951.000000	95.509485
2950.000000	95.375966
2949.000000	95.267971
2948.000000	95.171505
2947.000000	95.070322
2946.000000	94.955193
2945.000000	94.828253
2944.000000	94.700264
2943.000000	94.584323
2942.000000	94.489869
2941.000000	94.418620
2940.000000	94.364134
2939.000000	94.316194
2938.000000	94.268030
2937.000000	94.221312
2936.000000	94.185403
2935.000000	94.173173
2934.000000	94.195993
2933.000000	94.258830
2932.000000	94.356842
2931.000000	94.475883
2930.000000	94.598049
2929.000000	94.707010
2928.000000	94.790460
2927.000000	94.839108
2926.000000	94.845811
2925.000000	94.805524
2924.000000	94.715280
2923.000000	94.575306
2922.000000	94.390661
2921.000000	94.172433
2920.000000	93.936164
2919.000000	93.699381
2918.000000	93.479125
2917.000000	93.289160
2916.000000	93.136072
2915.000000	93.017233
2914.000000	92.923871
2913.000000	92.846531
2912.000000	92.778605
2911.000000	92.715659
2910.000000	92.653749
2909.000000	92.588399
2908.000000	92.514676
2907.000000	92.426901
2906.000000	92.317812
2905.000000	92.178384
2904.000000	91.997509
2903.000000	91.762792
2902.000000	91.460024
2901.000000	91.072480
2900.000000	90.581600
2899.000000	89.974327
2898.000000	89.254948
2897.000000	88.452663
2896.000000	87.619003
2895.000000	86.814190
2894.000000	86.093241
2893.000000	85.495415
2892.000000	85.038383
2891.000000	84.715746
2890.000000	84.497722
2889.000000	84.339091
2888.000000	84.195731
2887.000000	84.048885
2886.000000	83.923614
2885.000000	83.884773
2884.000000	84.007849
2883.000000	84.338195
2882.000000	84.866047
2881.000000	85.527806
2880.000000	86.232413
2879.000000	86.894825
2878.000000	87.457738
2877.000000	87.897086
2876.000000	88.212749
2875.000000	88.418590
2874.000000	88.534362
2873.000000	88.579422
2872.000000	88.568408
2871.000000	88.509826
2870.000000	88.408783
2869.000000	88.270932
2868.000000	88.105006
2867.000000	87.922371
2866.000000	87.735710
2865.000000	87.555388
2864.000000	87.385433
2863.000000	87.223283
2862.000000	87.064423
2861.000000	86.909301
2860.000000	86.766837
2859.000000	86.654112
2858.000000	86.594448
2857.000000	86.613253
2856.000000	86.732194
2855.000000	86.963196
2854.000000	87.304554
2853.000000	87.740548
2852.000000	88.244246
2851.000000	88.782770
2850.000000	89.323646
2849.000000	89.840556
2848.000000	90.315632
2847.000000	90.740619
2846.000000	91.115260
2845.000000	91.443975
2844.000000	91.732317
2843.000000	91.984372
2842.000000	92.202649
2841.000000	92.389183
2840.000000	92.545786
2839.000000	92.672972
2838.000000	92.768477
2837.000000	92.826938
2836.000000	92.841456
2835.000000	92.805551
2834.000000	92.714810
2833.000000	92.568656
2832.000000	92.372510
2831.000000	92.140130
2830.000000	91.893876
2829.000000	91.661197
2828.000000	91.469558
2827.000000	91.341323
2826.000000	91.289435
2825.000000	91.314776
2824.000000	91.405896
2823.000000	91.543927
2822.000000	91.710659
2821.000000	91.894582
2820.000000	92.091681
2819.000000	92.302368
2818.000000	92.527444
2817.000000	92.766298
2816.000000	93.016913
2815.000000	93.275937
2814.000000	93.538033
2813.000000	93.794724
2812.000000	94.034978
2811.000000	94.248082
2810.000000	94.426350
2809.000000	94.566375
2808.000000	94.669111
2807.000000	94.739342
2806.000000	94.784804
2805.000000	94.814603
2804.000000	94.837707
2803.000000	94.862701
2802.000000	94.897515
2801.000000	94.947935
2800.000000	95.015478
2799.000000	95.096153
2798.000000	95.180907
2797.000000	95.257060
2796.000000	95.310854
2795.000000	95.330952
2794.000000	95.312071
2793.000000	95.257308
2792.000000	95.178968
2791.000000	95.097558
2790.000000	95.038309
2789.000000	95.023841
2788.000000	95.065531
2787.000000	95.159687
2786.000000	95.290607
2785.000000	95.437808
2784.000000	95.582864
2783.000000	95.713750
2782.000000	95.826910
2781.000000	95.926742
2780.000000	96.021597
2779.000000	96.117956
2778.000000	96.216461
2777.000000	96.312459
2776.000000	96.400220
2775.000000	96.476603
2774.000000	96.541072
2773.000000	96.593643
2772.000000	96.634123
2771.000000	96.663523
2770.000000	96.685016
2769.000000	96.702039
2768.000000	96.715600
2767.000000	96.724014
2766.000000	96.725279
2765.000000	96.719528
2764.000000	96.709098
2763.000000	96.696882
2762.000000	96.684713
2761.000000	96.672562
2760.000000	96.658659
2759.000000	96.639918
2758.000000	96.612468
2757.000000	96.572536
2756.000000	96.518141
2755.000000	96.451399
2754.000000	96.379375
2753.000000	96.311954
2752.000000	96.258035
2751.000000	96.222343
2750.000000	96.203930
2749.000000	96.197066
2748.000000	96.194834
2747.000000	96.194550
2746.000000	96.200657
2745.000000	96.221041
2744.000000	96.260399
2743.000000	96.317714
2742.000000	96.389672
2741.000000	96.475204
2740.000000	96.575393
2739.000000	96.689820
2738.000000	96.813726
2737.000000	96.937966
2736.000000	97.051760
2735.000000	97.146767
2734.000000	97.219840
2733.000000	97.272519
2732.000000	97.308047
2731.000000	97.329025
2730.000000	97.338272
2729.000000	97.340428
2728.000000	97.341248
2727.000000	97.345252
2726.000000	97.353914
2725.000000	97.365901
2724.000000	97.378507
2723.000000	97.389088
2722.000000	97.395793
2721.000000	97.396561
2720.000000	97.387657
2719.000000	97.364287
2718.000000	97.323898
2717.000000	97.269344
2716.000000	97.208567
2715.000000	97.151484
2714.000000	97.106918
2713.000000	97.080389
2712.000000	97.072475
2711.000000	97.079181
2710.000000	97.095188
2709.000000	97.117691
2708.000000	97.147380
2707.000000	97.185714
2706.000000	97.232155
2705.000000	97.283966
2704.000000	97.337623
2703.000000	97.390214
2702.000000	97.439541
2701.000000	97.483285
2700.000000	97.518340
2699.000000	97.541325
2698.000000	97.549606
2697.000000	97.541838
2696.000000	97.517960
2695.000000	97.480677
2694.000000	97.438647
2693.000000	97.406309
2692.000000	97.396838
2691.000000	97.412844
2690.000000	97.444221
2689.000000	97.476201
2688.000000	97.500569
2687.000000	97.520106
2686.000000	97.544039
2685.000000	97.579756
2684.000000	97.627168
2683.000000	97.679361
2682.000000	97.728178
2681.000000	97.769747
2680.000000	97.805432
2679.000000	97.838377
2678.000000	97.869983
2677.000000	97.899602
2676.000000	97.926203
2675.000000	97.949134
2674.000000	97.967914
2673.000000	97.982290
2672.000000	97.992825
2671.000000	98.000914
2670.000000	98.007953
2669.000000	98.014882
2668.000000	98.022364
2667.000000	98.030781
2666.000000	98.039688
2665.000000	98.047445
2664.000000	98.052053
2663.000000	98.052761
2662.000000	98.050910
2661.000000	98.049056
2660.000000	98.049150
2659.000000	98.051696
2658.000000	98.056391
2657.000000	98.062752
2656.000000	98.069576
2655.000000	98.074521
2654.000000	98.075555
2653.000000	98.073257
2652.000000	98.070968
2651.000000	98.072036
2650.000000	98.077065
2649.000000	98.083963
2648.000000	98.090253
2647.000000	98.095083
2646.000000	98.099324
2645.000000	98.104217
2644.000000	98.110032
2643.000000	98.116041
2642.000000	98.121831
2641.000000	98.128238
2640.000000	98.136360
2639.000000	98.145631
2638.000000	98.153528
2637.000000	98.157573
2636.000000	98.157430
2635.000000	98.154880
2634.000000	98.152125
2633.000000	98.150321
2632.000000	98.149296
2631.000000	98.148253
2630.000000	98.146641
2629.000000	98.144433
2628.000000	98.141725
2627.000000	98.138429
2626.000000	98.134603
2625.000000	98.130642
2624.000000	98.126781
2623.000000	98.123064
2622.000000	98.120512
2621.000000	98.121366
2620.000000	98.126526
2619.000000	98.132945
2618.000000	98.135609
2617.000000	98.133001
2616.000000	98.129205
2615.000000	98.129546
2614.000000	98.135082
2613.000000	98.142332
2612.000000	98.147425
2611.000000	98.149147
2610.000000	98.148367
2609.000000	98.146031
2608.000000	98.142261
2607.000000	98.136912
2606.000000	98.130809
2605.000000	98.126288
2604.000000	98.125639
2603.000000	98.128455
2602.000000	98.131242
2601.000000	98.130817
2600.000000	98.127905
2599.000000	98.126423
2598.000000	98.129112
2597.000000	98.134564
2596.000000	98.138707
2595.000000	98.138709
2594.000000	98.135219
2593.000000	98.131186
2592.000000	98.128712
2591.000000	98.127122
2590.000000	98.124261
2589.000000	98.119376
2588.000000	98.114049
2587.000000	98.110108
2586.000000	98.107700
2585.000000	98.106188
2584.000000	98.106158
2583.000000	98.109099
2582.000000	98.115008
2581.000000	98.121448
2580.000000	98.125507
2579.000000	98.126409
2578.000000	98.125940
2577.000000	98.126684
2576.000000	98.130005
2575.000000	98.135472
2574.000000	98.141923
2573.000000	98.148781
2572.000000	98.155992
2571.000000	98.162762
2570.000000	98.167352
2569.000000	98.168831
2568.000000	98.168652
2567.000000	98.169505
2566.000000	98.172605
2565.000000	98.176843
2564.000000	98.180706
2563.000000	98.184334
2562.000000	98.189002
2561.000000	98.194862
2560.000000	98.199961
2559.000000	98.202077
2558.000000	98.201447
2557.000000	98.201061
2556.000000	98.203765
2555.000000	98.209458
2554.000000	98.215740
2553.000000	98.221097
2552.000000	98.226292
2551.000000	98.232345
2550.000000	98.238321
2549.000000	98.242260
2548.000000	98.243755
2547.000000	98.244443
2546.000000	98.245892
2545.000000	98.247945
2544.000000	98.249294
2543.000000	98.248934
2542.000000	98.246759
2541.000000	98.243343
2540.000000	98.239643
2539.000000	98.236640
2538.000000	98.234968
2537.000000	98.235073
2536.000000	98.237719
2535.000000	98.243546
2534.000000	98.251388
2533.000000	98.257561
2532.000000	98.258232
2531.000000	98.253250
2530.000000	98.246967
2529.000000	98.244421
2528.000000	98.246836
2527.000000	98.251538
2526.000000	98.255903
2525.000000	98.260222
2524.000000	98.266071
2523.000000	98.273004
2522.000000	98.278078
2521.000000	98.278652
2520.000000	98.274959
2519.000000	98.269765
2518.000000	98.265969
2517.000000	98.264534
2516.000000	98.264351
2515.000000	98.263888
2514.000000	98.262993
2513.000000	98.262766
2512.000000	98.263660
2511.000000	98.264432
2510.000000	98.263685
2509.000000	98.261856
2508.000000	98.260522
2507.000000	98.259839
2506.000000	98.257808
2505.000000	98.252651
2504.000000	98.245276
2503.000000	98.238947
2502.000000	98.236923
2501.000000	98.240322
2500.000000	98.247498
2499.000000	98.255167
2498.000000	98.261174
2497.000000	98.266815
2496.000000	98.275576
2495.000000	98.288807
2494.000000	98.303096
2493.000000	98.312911
2492.000000	98.315776
2491.000000	98.314219
2490.000000	98.312884
2489.000000	98.314593
2488.000000	98.319103
2487.000000	98.324391
2486.000000	98.328414
2485.000000	98.330019
2484.000000	98.329255
2483.000000	98.327191
2482.000000	98.325039
2481.000000	98.323017
2480.000000	98.320020
2479.000000	98.314845
2478.000000	98.308093
2477.000000	98.302688
2476.000000	98.301926
2475.000000	98.306470
2474.000000	98.313068
2473.000000	98.316621
2472.000000	98.314042
2471.000000	98.306534
2470.000000	98.298353
2469.000000	98.293351
2468.000000	98.292516
2467.000000	98.294339
2466.000000	98.296872
2465.000000	98.299140
2464.000000	98.301168
2463.000000	98.303489
2462.000000	98.306773
2461.000000	98.311264
2460.000000	98.316432
2459.000000	98.321478
2458.000000	98.326228
2457.000000	98.331068
2456.000000	98.335983
2455.000000	98.340271
2454.000000	98.343489
2453.000000	98.346269
2452.000000	98.349904
2451.000000	98.355288
2450.000000	98.362105
2449.000000	98.368519
2448.000000	98.371976
2447.000000	98.371397
2446.000000	98.368906
2445.000000	98.368350
2444.000000	98.371381
2443.000000	98.375797
2442.000000	98.378258
2441.000000	98.377804
2440.000000	98.375873
2439.000000	98.373667
2438.000000	98.370917
2437.000000	98.367200
2436.000000	98.363361
2435.000000	98.361149
2434.000000	98.361711
2433.000000	98.364533
2432.000000	98.367635
2431.000000	98.368990
2430.000000	98.368016
2429.000000	98.365770
2428.000000	98.363689
2427.000000	98.362302
2426.000000	98.360962
2425.000000	98.358566
2424.000000	98.354800
2423.000000	98.351133
2422.000000	98.350059
2421.000000	98.352396
2420.000000	98.355790
2419.000000	98.357275
2418.000000	98.356983
2417.000000	98.357562
2416.000000	98.359763
2415.000000	98.360755
2414.000000	98.357918
2413.000000	98.352538
2412.000000	98.348341
2411.000000	98.347348
2410.000000	98.348434
2409.000000	98.348985
2408.000000	98.346874
2407.000000	98.341831
2406.000000	98.336171
2405.000000	98.333413
2404.000000	98.335017
2403.000000	98.339001
2402.000000	98.342453
2401.000000	98.344248
2400.000000	98.344472
2399.000000	98.342950
2398.000000	98.340309
2397.000000	98.339369
2396.000000	98.342887
2395.000000	98.349743
2394.000000	98.355120
2393.000000	98.354935
2392.000000	98.349254
2391.000000	98.341379
2390.000000	98.334938
2389.000000	98.332083
2388.000000	98.333387
2387.000000	98.338824
2386.000000	98.348145
2385.000000	98.360205
2384.000000	98.371982
2383.000000	98.379834
2382.000000	98.382679
2381.000000	98.382269
2380.000000	98.379830
2379.000000	98.373736
2378.000000	98.362629
2377.000000	98.349552
2376.000000	98.339985
2375.000000	98.336497
2374.000000	98.337665
2373.000000	98.341801
2372.000000	98.348172
2371.000000	98.355494
2370.000000	98.362239
2369.000000	98.368158
2368.000000	98.372622
2367.000000	98.372362
2366.000000	98.365658
2365.000000	98.356777
2364.000000	98.351550
2363.000000	98.349620
2362.000000	98.346023
2361.000000	98.339698
2360.000000	98.333941
2359.000000	98.332057
2358.000000	98.335126
2357.000000	98.341903
2356.000000	98.348663
2355.000000	98.349730
2354.000000	98.345884
2353.000000	98.344091
2352.000000	98.347880
2351.000000	98.352213
2350.000000	98.350645
2349.000000	98.343175
2348.000000	98.334209
2347.000000	98.329647
2346.000000	98.332208
2345.000000	98.339368
2344.000000	98.346048
2343.000000	98.347489
2342.000000	98.343912
2341.000000	98.338595
2340.000000	98.336432
2339.000000	98.339342
2338.000000	98.345212
2337.000000	98.349542
2336.000000	98.349349
2335.000000	98.345433
2334.000000	98.340960
2333.000000	98.338920
2332.000000	98.339365
2331.000000	98.340925
2330.000000	98.340532
2329.000000	98.337084
2328.000000	98.329476
2327.000000	98.320996
2326.000000	98.315906
2325.000000	98.317528
2324.000000	98.323811
2323.000000	98.328471
2322.000000	98.326686
2321.000000	98.319973
2320.000000	98.315455
2319.000000	98.318954
2318.000000	98.328758
2317.000000	98.338657
2316.000000	98.343925
2315.000000	98.347023
2314.000000	98.352144
2313.000000	98.360270
2312.000000	98.366160
2311.000000	98.365924
2310.000000	98.360445
2309.000000	98.354729
2308.000000	98.350270
2307.000000	98.344422
2306.000000	98.334440
2305.000000	98.323125
2304.000000	98.316431
2303.000000	98.317475
2302.000000	98.322748
2301.000000	98.326151
2300.000000	98.324608
2299.000000	98.321291
2298.000000	98.321501
2297.000000	98.327766
2296.000000	98.336399
2295.000000	98.341641
2294.000000	98.340667
2293.000000	98.336146
2292.000000	98.331810
2291.000000	98.328736
2290.000000	98.325755
2289.000000	98.323192
2288.000000	98.323829
2287.000000	98.330311
2286.000000	98.342438
2285.000000	98.356198
2284.000000	98.365469
2283.000000	98.365793
2282.000000	98.358455
2281.000000	98.349493
2280.000000	98.344091
2279.000000	98.342861
2278.000000	98.344971
2277.000000	98.351409
2276.000000	98.362630
2275.000000	98.375601
2274.000000	98.386760
2273.000000	98.396034
2272.000000	98.404183
2271.000000	98.408983
2270.000000	98.408634
2269.000000	98.406536
2268.000000	98.406735
2267.000000	98.406613
2266.000000	98.401126
2265.000000	98.392797
2264.000000	98.388171
2263.000000	98.384382
2262.000000	98.369687
2261.000000	98.341810
2260.000000	98.316421
2259.000000	98.310535
2258.000000	98.323290
2257.000000	98.338787
2256.000000	98.343674
2255.000000	98.335766
2254.000000	98.319498
2253.000000	98.300359
2252.000000	98.283270
2251.000000	98.271085
2250.000000	98.263937
2249.000000	98.262019
2248.000000	98.266683
2247.000000	98.277878
2246.000000	98.293073
2245.000000	98.312189
2244.000000	98.339300
2243.000000	98.374240
2242.000000	98.405012
2241.000000	98.415318
2240.000000	98.401107
2239.000000	98.376491
2238.000000	98.362734
2237.000000	98.372653
2236.000000	98.402291
2235.000000	98.434299
2234.000000	98.451282
2233.000000	98.450507
2232.000000	98.445615
2231.000000	98.451569
2230.000000	98.469396
2229.000000	98.488118
2228.000000	98.498919
2227.000000	98.502536
2226.000000	98.504321
2225.000000	98.507806
2224.000000	98.514434
2223.000000	98.525423
2222.000000	98.541473
2221.000000	98.562116
2220.000000	98.586485
2219.000000	98.613936
2218.000000	98.642930
2217.000000	98.669335
2216.000000	98.686361
2215.000000	98.688538
2214.000000	98.678100
2213.000000	98.665834
2212.000000	98.661625
2211.000000	98.665527
2210.000000	98.672977
2209.000000	98.685930
2208.000000	98.710075
2207.000000	98.741471
2206.000000	98.766708
2205.000000	98.780623
2204.000000	98.794530
2203.000000	98.820167
2202.000000	98.853528
2201.000000	98.882273
2200.000000	98.903245
2199.000000	98.923388
2198.000000	98.947256
2197.000000	98.971750
2196.000000	98.990905
2195.000000	98.999434
2194.000000	98.994370
2193.000000	98.979767
2192.000000	98.967001
2191.000000	98.964645
2190.000000	98.970861
2189.000000	98.979219
2188.000000	98.987601
2187.000000	98.997855
2186.000000	99.011723
2185.000000	99.030552
2184.000000	99.052671
2183.000000	99.068188
2182.000000	99.065154
2181.000000	99.045616
2180.000000	99.025862
2179.000000	99.016204
2178.000000	99.011793
2177.000000	99.007940
2176.000000	99.011964
2175.000000	99.030728
2174.000000	99.056535
2173.000000	99.074812
2172.000000	99.078092
2171.000000	99.065097
2170.000000	99.036608
2169.000000	99.001891
2168.000000	98.979990
2167.000000	98.982111
2166.000000	98.998254
2165.000000	99.010541
2164.000000	99.015020
2163.000000	99.021474
2162.000000	99.037686
2161.000000	99.063454
2160.000000	99.091687
2159.000000	99.106924
2158.000000	99.094027
2157.000000	99.057521
2156.000000	99.017883
2155.000000	98.984258
2154.000000	98.945494
2153.000000	98.891360
2152.000000	98.829693
2151.000000	98.775642
2150.000000	98.733281
2149.000000	98.694973
2148.000000	98.653541
2147.000000	98.610022
2146.000000	98.572561
2145.000000	98.549768
2144.000000	98.541641
2143.000000	98.537659
2142.000000	98.528109
2141.000000	98.515162
2140.000000	98.507893
2139.000000	98.508260
2138.000000	98.509376
2137.000000	98.505640
2136.000000	98.496502
2135.000000	98.480622
2134.000000	98.455587
2133.000000	98.425014
2132.000000	98.398236
2131.000000	98.381315
2130.000000	98.373184
2129.000000	98.369653
2128.000000	98.365820
2127.000000	98.356225
2126.000000	98.339766
2125.000000	98.325075
2124.000000	98.324127
2123.000000	98.339331
2122.000000	98.362457
2121.000000	98.386000
2120.000000	98.408307
2119.000000	98.426053
2118.000000	98.430981
2117.000000	98.419837
2116.000000	98.401831
2115.000000	98.389789
2114.000000	98.387240
2113.000000	98.388568
2112.000000	98.387688
2111.000000	98.382118
2110.000000	98.371860
2109.000000	98.359902
2108.000000	98.351729
2107.000000	98.350016
2106.000000	98.351073
2105.000000	98.349390
2104.000000	98.343709
2103.000000	98.336507
2102.000000	98.330269
2101.000000	98.326615
2100.000000	98.325829
2099.000000	98.324937
2098.000000	98.319810
2097.000000	98.311945
2096.000000	98.309421
2095.000000	98.317441
2094.000000	98.331355
2093.000000	98.342042
2092.000000	98.345278
2091.000000	98.342963
2090.000000	98.338499
2089.000000	98.334039
2088.000000	98.329533
2087.000000	98.322181
2086.000000	98.309431
2085.000000	98.294527
2084.000000	98.285673
2083.000000	98.286698
2082.000000	98.291868
2081.000000	98.293126
2080.000000	98.289458
2079.000000	98.285776
2078.000000	98.285319
2077.000000	98.287272
2076.000000	98.289849
2075.000000	98.291557
2074.000000	98.290419
2073.000000	98.285326
2072.000000	98.277688
2071.000000	98.269918
2070.000000	98.263642
2069.000000	98.260700
2068.000000	98.262751
2067.000000	98.267089
2066.000000	98.265325
2065.000000	98.250108
2064.000000	98.223595
2063.000000	98.197672
2062.000000	98.186392
2061.000000	98.196820
2060.000000	98.222272
2059.000000	98.244023
2058.000000	98.244617
2057.000000	98.222220
2056.000000	98.191072
2055.000000	98.167877
2054.000000	98.160306
2053.000000	98.167590
2052.000000	98.185241
2051.000000	98.205894
2050.000000	98.220116
2049.000000	98.222000
2048.000000	98.213774
2047.000000	98.203050
2046.000000	98.198576
2045.000000	98.208047
2044.000000	98.232660
2043.000000	98.262825
2042.000000	98.285508
2041.000000	98.296420
2040.000000	98.298997
2039.000000	98.292953
2038.000000	98.275236
2037.000000	98.252918
2036.000000	98.241805
2035.000000	98.246760
2034.000000	98.255658
2033.000000	98.257925
2032.000000	98.257032
2031.000000	98.259636
2030.000000	98.265246
2029.000000	98.272276
2028.000000	98.281442
2027.000000	98.287336
2026.000000	98.278910
2025.000000	98.256728
2024.000000	98.238543
2023.000000	98.239016
2022.000000	98.253489
2021.000000	98.268557
2020.000000	98.279910
2019.000000	98.292266
2018.000000	98.309029
2017.000000	98.328685
2016.000000	98.345578
2015.000000	98.350275
2014.000000	98.334746
2013.000000	98.301821
2012.000000	98.266021
2011.000000	98.241375
2010.000000	98.233599
2009.000000	98.243426
2008.000000	98.267461
2007.000000	98.294826
2006.000000	98.312169
2005.000000	98.314575
2004.000000	98.305620
2003.000000	98.289199
2002.000000	98.270084
2001.000000	98.258961
2000.000000	98.263495
1999.000000	98.273523
1998.000000	98.268164
1997.000000	98.240706
1996.000000	98.206694
1995.000000	98.183200
1994.000000	98.171068
1993.000000	98.160841
1992.000000	98.145785
1991.000000	98.123971
1990.000000	98.095034
1989.000000	98.059031
1988.000000	98.014091
1987.000000	97.956200
1986.000000	97.888696
1985.000000	97.829121
1984.000000	97.794005
1983.000000	97.777871
1982.000000	97.760788
1981.000000	97.735584
1980.000000	97.711130
1979.000000	97.685130
1978.000000	97.637435
1977.000000	97.565438
1976.000000	97.502356
1975.000000	97.479668
1974.000000	97.492992
1973.000000	97.516700
1972.000000	97.534195
1971.000000	97.542962
1970.000000	97.545481
1969.000000	97.553137
1968.000000	97.588697
1967.000000	97.664173
1966.000000	97.758789
1965.000000	97.836158
1964.000000	97.880391
1963.000000	97.903295
1962.000000	97.924653
1961.000000	97.955567
1960.000000	97.995005
1959.000000	98.034227
1958.000000	98.064458
1957.000000	98.083675
1956.000000	98.095680
1955.000000	98.102319
1954.000000	98.101250
1953.000000	98.092922
1952.000000	98.083385
1951.000000	98.077962
1950.000000	98.077339
1949.000000	98.081834
1948.000000	98.093629
1947.000000	98.112111
1946.000000	98.132082
1945.000000	98.149212
1944.000000	98.163695
1943.000000	98.177354
1942.000000	98.191579
1941.000000	98.209115
1940.000000	98.231794
1939.000000	98.254435
1938.000000	98.267548
1937.000000	98.270227
1936.000000	98.274619
1935.000000	98.292502
1934.000000	98.323377
1933.000000	98.358808
1932.000000	98.391645
1931.000000	98.418303
1930.000000	98.437988
1929.000000	98.455238
1928.000000	98.478512
1927.000000	98.511735
1926.000000	98.550293
1925.000000	98.585064
1924.000000	98.609369
1923.000000	98.622115
1922.000000	98.629447
1921.000000	98.641096
1920.000000	98.658676
1919.000000	98.667661
1918.000000	98.649737
1917.000000	98.608837
1916.000000	98.568413
1915.000000	98.540536
1914.000000	98.518868
1913.000000	98.497216
1912.000000	98.480288
1911.000000	98.474275
1910.000000	98.476296
1909.000000	98.479307
1908.000000	98.481791
1907.000000	98.486676
1906.000000	98.494444
1905.000000	98.501183
1904.000000	98.503630
1903.000000	98.502496
1902.000000	98.502152
1901.000000	98.507940
1900.000000	98.521465
1899.000000	98.537893
1898.000000	98.550346
1897.000000	98.556096
1896.000000	98.555858
1895.000000	98.548071
1894.000000	98.531394
1893.000000	98.512024
1892.000000	98.499762
1891.000000	98.496197
1890.000000	98.492321
1889.000000	98.479949
1888.000000	98.461669
1887.000000	98.445824
1886.000000	98.437373
1885.000000	98.437515
1884.000000	98.444803
1883.000000	98.453644
1882.000000	98.456880
1881.000000	98.453066
1880.000000	98.448261
1879.000000	98.448049
1878.000000	98.451646
1877.000000	98.455365
1876.000000	98.458036
1875.000000	98.460528
1874.000000	98.463243
1873.000000	98.466533
1872.000000	98.470931
1871.000000	98.474856
1870.000000	98.475166
1869.000000	98.472933
1868.000000	98.473047
1867.000000	98.476453
1866.000000	98.481333
1865.000000	98.486038
1864.000000	98.488945
1863.000000	98.488360
1862.000000	98.484201
1861.000000	98.479751
1860.000000	98.478228
1859.000000	98.477927
1858.000000	98.475206
1857.000000	98.470272
1856.000000	98.465785
1855.000000	98.461504
1854.000000	98.454561
1853.000000	98.445603
1852.000000	98.439487
1851.000000	98.437561
1850.000000	98.437181
1849.000000	98.436856
1848.000000	98.436426
1847.000000	98.431403
1846.000000	98.415850
1845.000000	98.394519
1844.000000	98.383878
1843.000000	98.390734
1842.000000	98.404213
1841.000000	98.411680
1840.000000	98.409799
1839.000000	98.401207
1838.000000	98.387135
1837.000000	98.366935
1836.000000	98.343261
1835.000000	98.321551
1834.000000	98.305884
1833.000000	98.299137
1832.000000	98.305213
1831.000000	98.325745
1830.000000	98.354685
1829.000000	98.379268
1828.000000	98.393029
1827.000000	98.397803
1826.000000	98.395272
1825.000000	98.389445
1824.000000	98.387483
1823.000000	98.391934
1822.000000	98.398689
1821.000000	98.402840
1820.000000	98.403175
1819.000000	98.400767
1818.000000	98.397767
1817.000000	98.397355
1816.000000	98.401517
1815.000000	98.407684
1814.000000	98.411388
1813.000000	98.411771
1812.000000	98.410609
1811.000000	98.406412
1810.000000	98.395218
1809.000000	98.379340
1808.000000	98.365526
1807.000000	98.356545
1806.000000	98.351130
1805.000000	98.348531
1804.000000	98.348157
1803.000000	98.345844
1802.000000	98.336003
1801.000000	98.319928
1800.000000	98.302164
1799.000000	98.283046
1798.000000	98.263016
1797.000000	98.246877
1796.000000	98.237157
1795.000000	98.228016
1794.000000	98.211468
1793.000000	98.190354
1792.000000	98.178141
1791.000000	98.178322
1790.000000	98.182440
1789.000000	98.186643
1788.000000	98.191728
1787.000000	98.197244
1786.000000	98.201623
1785.000000	98.206613
1784.000000	98.215907
1783.000000	98.227201
1782.000000	98.231754
1781.000000	98.226652
1780.000000	98.218829
1779.000000	98.217319
1778.000000	98.224839
1777.000000	98.238610
1776.000000	98.252882
1775.000000	98.260912
1774.000000	98.260810
1773.000000	98.260244
1772.000000	98.268585
1771.000000	98.278711
1770.000000	98.278726
1769.000000	98.269490
1768.000000	98.262392
1767.000000	98.265216
1766.000000	98.273885
1765.000000	98.280327
1764.000000	98.280687
1763.000000	98.277147
1762.000000	98.272656
1761.000000	98.268304
1760.000000	98.264271
1759.000000	98.258552
1758.000000	98.246820
1757.000000	98.230724
1756.000000	98.217343
1755.000000	98.208300
1754.000000	98.196197
1753.000000	98.173316
1752.000000	98.141466
1751.000000	98.109863
1750.000000	98.080560
1749.000000	98.043684
1748.000000	97.995291
1747.000000	97.939659
1746.000000	97.879178
1745.000000	97.812844
1744.000000	97.741677
1743.000000	97.668051
1742.000000	97.584711
1741.000000	97.478048
1740.000000	97.352994
1739.000000	97.244164
1738.000000	97.173717
1737.000000	97.123526
1736.000000	97.057810
1735.000000	96.951760
1734.000000	96.830042
1733.000000	96.759776
1732.000000	96.751975
1731.000000	96.768255
1730.000000	96.780400
1729.000000	96.784666
1728.000000	96.793475
1727.000000	96.816120
1726.000000	96.851174
1725.000000	96.896072
1724.000000	96.953873
1723.000000	97.027585
1722.000000	97.109698
1721.000000	97.188752
1720.000000	97.260622
1719.000000	97.326348
1718.000000	97.385323
1717.000000	97.446224
1716.000000	97.517031
1715.000000	97.589052
1714.000000	97.649009
1713.000000	97.695498
1712.000000	97.739541
1711.000000	97.789699
1710.000000	97.841999
1709.000000	97.889641
1708.000000	97.932376
1707.000000	97.970677
1706.000000	98.002061
1705.000000	98.026702
1704.000000	98.049479
1703.000000	98.068047
1702.000000	98.075483
1701.000000	98.074470
1700.000000	98.078021
1699.000000	98.092213
1698.000000	98.108716
1697.000000	98.117016
1696.000000	98.123432
1695.000000	98.128807
1694.000000	98.133640
1693.000000	98.138842
1692.000000	98.140444
1691.000000	98.139766
1690.000000	98.137376
1689.000000	98.133968
1688.000000	98.134935
1687.000000	98.140938
1686.000000	98.146878
1685.000000	98.142663
1684.000000	98.128538
1683.000000	98.106272
1682.000000	98.082085
1681.000000	98.059510
1680.000000	98.042979
1679.000000	98.036030
1678.000000	98.031469
1677.000000	98.018879
1676.000000	97.998670
1675.000000	97.980057
1674.000000	97.965630
1673.000000	97.952724
1672.000000	97.935179
1671.000000	97.903421
1670.000000	97.841972
1669.000000	97.750079
1668.000000	97.657373
1667.000000	97.586020
1666.000000	97.522957
1665.000000	97.439858
1664.000000	97.312111
1663.000000	97.128570
1662.000000	96.898750
1661.000000	96.640429
1660.000000	96.349710
1659.000000	96.010151
1658.000000	95.627528
1657.000000	95.234660
1656.000000	94.826273
1655.000000	94.218651
1654.000000	92.925542
1653.000000	91.111631
1652.000000	90.110049
1651.000000	89.995651
1650.000000	90.238941
1649.000000	90.640427
1648.000000	91.205005
1647.000000	91.938647
1646.000000	92.668130
1645.000000	93.245911
1644.000000	93.715204
1643.000000	94.139437
1642.000000	94.539112
1641.000000	94.908113
1640.000000	95.231074
1639.000000	95.502070
1638.000000	95.736446
1637.000000	95.965824
1636.000000	96.205288
1635.000000	96.412164
1634.000000	96.561033
1633.000000	96.681011
1632.000000	96.787332
1631.000000	96.884511
1630.000000	96.979293
1629.000000	97.074105
1628.000000	97.161703
1627.000000	97.234008
1626.000000	97.291701
1625.000000	97.342281
1624.000000	97.392330
1623.000000	97.444589
1622.000000	97.495112
1621.000000	97.539492
1620.000000	97.575651
1619.000000	97.601948
1618.000000	97.622775
1617.000000	97.647854
1616.000000	97.678418
1615.000000	97.707861
1614.000000	97.732640
1613.000000	97.749130
1612.000000	97.759424
1611.000000	97.770192
1610.000000	97.784768
1609.000000	97.800222
1608.000000	97.813489
1607.000000	97.826528
1606.000000	97.841728
1605.000000	97.859217
1604.000000	97.877487
1603.000000	97.895602
1602.000000	97.912643
1601.000000	97.926942
1600.000000	97.939048
1599.000000	97.952416
1598.000000	97.969350
1597.000000	97.988783
1596.000000	98.007899
1595.000000	98.024199
1594.000000	98.036170
1593.000000	98.043775
1592.000000	98.049326
1591.000000	98.055868
1590.000000	98.064068
1589.000000	98.072158
1588.000000	98.079516
1587.000000	98.087730
1586.000000	98.096816
1585.000000	98.104783
1584.000000	98.111846
1583.000000	98.118854
1582.000000	98.126694
1581.000000	98.135458
1580.000000	98.144246
1579.000000	98.149331
1578.000000	98.147899
1577.000000	98.142654
1576.000000	98.142929
1575.000000	98.152878
1574.000000	98.168813
1573.000000	98.182507
1572.000000	98.189850
1571.000000	98.196301
1570.000000	98.207930
1569.000000	98.220249
1568.000000	98.228240
1567.000000	98.236193
1566.000000	98.244337
1565.000000	98.249665
1564.000000	98.253423
1563.000000	98.257111
1562.000000	98.260125
1561.000000	98.263610
1560.000000	98.269569
1559.000000	98.277960
1558.000000	98.274801
1557.000000	98.245966
1556.000000	98.228033
1555.000000	98.223630
1554.000000	98.225850
1553.000000	98.232969
1552.000000	98.244886
1551.000000	98.257611
1550.000000	98.265002
1549.000000	98.262419
1548.000000	98.255430
1547.000000	98.252019
1546.000000	98.252626
1545.000000	98.253778
1544.000000	98.255832
1543.000000	98.256505
1542.000000	98.246940
1541.000000	98.231248
1540.000000	98.238236
1539.000000	98.249398
1538.000000	98.245638
1537.000000	98.244024
1536.000000	98.245204
1535.000000	98.247162
1534.000000	98.250921
1533.000000	98.256126
1532.000000	98.257649
1531.000000	98.255060
1530.000000	98.249198
1529.000000	98.239812
1528.000000	98.229791
1527.000000	98.222386
1526.000000	98.215510
1525.000000	98.209387
1524.000000	98.207624
1523.000000	98.208079
1522.000000	98.206038
1521.000000	98.206620
1520.000000	98.216564
1519.000000	98.232736
1518.000000	98.237735
1517.000000	98.224430
1516.000000	98.207628
1515.000000	98.195487
1514.000000	98.180714
1513.000000	98.162145
1512.000000	98.154341
1511.000000	98.167408
1510.000000	98.183918
1509.000000	98.176760
1508.000000	98.152230
1507.000000	98.161134
1506.000000	98.165490
1505.000000	98.127297
1504.000000	98.109072
1503.000000	98.113790
1502.000000	98.116605
1501.000000	98.105593
1500.000000	98.089002
1499.000000	98.073687
1498.000000	98.045331
1497.000000	97.995111
1496.000000	97.950447
1495.000000	97.930794
1494.000000	97.915977
1493.000000	97.881591
1492.000000	97.823955
1491.000000	97.744950
1490.000000	97.627752
1489.000000	97.453615
1488.000000	97.214136
1487.000000	96.880372
1486.000000	96.414575
1485.000000	95.816931
1484.000000	95.132653
1483.000000	94.419685
1482.000000	93.753779
1481.000000	93.225530
1480.000000	92.863976
1479.000000	92.617276
1478.000000	92.451996
1477.000000	92.407071
1476.000000	92.515400
1475.000000	92.716453
1474.000000	92.921445
1473.000000	93.090166
1472.000000	93.156134
1471.000000	93.006684
1470.000000	92.618834
1469.000000	92.055168
1468.000000	91.399120
1467.000000	90.726722
1466.000000	90.143792
1465.000000	89.847451
1464.000000	89.956551
1463.000000	90.299469
1462.000000	90.623496
1461.000000	90.808907
1460.000000	90.821526
1459.000000	90.601594
1458.000000	90.079847
1457.000000	89.554659
1456.000000	89.619943
1455.000000	90.305924
1454.000000	91.317522
1453.000000	92.425281
1452.000000	93.421736
1451.000000	94.157636
1450.000000	94.650564
1449.000000	95.037227
1448.000000	95.413928
1447.000000	95.768226
1446.000000	96.058644
1445.000000	96.284293
1444.000000	96.449518
1443.000000	96.546318
1442.000000	96.573276
1441.000000	96.536171
1440.000000	96.428296
1439.000000	96.225649
1438.000000	95.913911
1437.000000	95.555949
1436.000000	95.314956
1435.000000	95.268354
1434.000000	95.348697
1433.000000	95.497120
1432.000000	95.708361
1431.000000	95.989678
1430.000000	96.317453
1429.000000	96.630147
1428.000000	96.870439
1427.000000	97.031582
1426.000000	97.145512
1425.000000	97.238838
1424.000000	97.309092
1423.000000	97.346801
1422.000000	97.361334
1421.000000	97.366198
1420.000000	97.360745
1419.000000	97.344545
1418.000000	97.334759
1417.000000	97.338337
1416.000000	97.343278
1415.000000	97.346276
1414.000000	97.361452
1413.000000	97.397968
1412.000000	97.444895
1411.000000	97.486245
1410.000000	97.519087
1409.000000	97.546208
1408.000000	97.564155
1407.000000	97.570572
1406.000000	97.573504
1405.000000	97.581522
1404.000000	97.588817
1403.000000	97.587402
1402.000000	97.580158
1401.000000	97.566274
1400.000000	97.530421
1399.000000	97.462956
1398.000000	97.378511
1397.000000	97.290567
1396.000000	97.196466
1395.000000	97.107786
1394.000000	97.059140
1393.000000	97.066472
1392.000000	97.111011
1391.000000	97.165884
1390.000000	97.217306
1389.000000	97.261003
1388.000000	97.290575
1387.000000	97.300135
1386.000000	97.291310
1385.000000	97.261093
1384.000000	97.188493
1383.000000	97.046391
1382.000000	96.829811
1381.000000	96.573826
1380.000000	96.352369
1379.000000	96.255344
1378.000000	96.331191
1377.000000	96.540221
1376.000000	96.784637
1375.000000	96.975529
1374.000000	97.078584
1373.000000	97.113687
1372.000000	97.113575
1371.000000	97.102003
1370.000000	97.094761
1369.000000	97.091003
1368.000000	97.067338
1367.000000	97.003756
1366.000000	96.906320
1365.000000	96.785351
1364.000000	96.631363
1363.000000	96.437285
1362.000000	96.221158
1361.000000	95.979711
1360.000000	95.638986
1359.000000	95.066461
1358.000000	94.088391
1357.000000	92.509507
1356.000000	90.253004
1355.000000	87.612749
1354.000000	85.259349
1353.000000	83.712020
1352.000000	82.758758
1351.000000	81.611810
1350.000000	79.778465
1349.000000	77.812509
1348.000000	76.998195
1347.000000	78.179511
1346.000000	81.011863
1345.000000	84.294479
1344.000000	86.976463
1343.000000	88.818860
1342.000000	90.207663
1341.000000	91.576894
1340.000000	93.017797
1339.000000	94.298968
1338.000000	95.210202
1337.000000	95.773440
1336.000000	96.123718
1335.000000	96.363692
1334.000000	96.537881
1333.000000	96.666394
1332.000000	96.765004
1331.000000	96.844823
1330.000000	96.912051
1329.000000	96.967963
1328.000000	97.013002
1327.000000	97.050497
1326.000000	97.084406
1325.000000	97.114814
1324.000000	97.138887
1323.000000	97.155864
1322.000000	97.168074
1321.000000	97.177569
1320.000000	97.185612
1319.000000	97.194470
1318.000000	97.205419
1317.000000	97.215073
1316.000000	97.217659
1315.000000	97.211434
1314.000000	97.200047
1313.000000	97.187829
1312.000000	97.175502
1311.000000	97.161065
1310.000000	97.143200
1309.000000	97.122003
1308.000000	97.097739
1307.000000	97.069807
1306.000000	97.035613
1305.000000	96.990900
1304.000000	96.932843
1303.000000	96.861306
1302.000000	96.775786
1301.000000	96.670606
1300.000000	96.536457
1299.000000	96.363538
1298.000000	96.139175
1297.000000	95.845454
1296.000000	95.458179
1295.000000	94.951348
1294.000000	94.299624
1293.000000	93.484148
1292.000000	92.515100
1291.000000	91.450031
1290.000000	90.388627
1289.000000	89.453415
1288.000000	88.776634
1287.000000	88.470412
1286.000000	88.585352
1285.000000	89.090008
1284.000000	89.883617
1283.000000	90.825156
1282.000000	91.763159
1281.000000	92.583575
1280.000000	93.238699
1279.000000	93.738561
1278.000000	94.123646
1277.000000	94.436880
1276.000000	94.703632
1275.000000	94.927105
1274.000000	95.103314
1273.000000	95.236156
1272.000000	95.340793
1271.000000	95.431878
1270.000000	95.515437
1269.000000	95.592347
1268.000000	95.660278
1267.000000	95.712409
1266.000000	95.739644
1265.000000	95.737553
1264.000000	95.707591
1263.000000	95.648390
1262.000000	95.553637
1261.000000	95.416580
1260.000000	95.225360
1259.000000	94.954713
1258.000000	94.552680
1257.000000	93.930277
1256.000000	92.944574
1255.000000	91.427752
1254.000000	89.344724
1253.000000	86.994721
1252.000000	85.011033
1251.000000	84.001976
1250.000000	84.058600
1249.000000	84.648521
1248.000000	85.102748
1247.000000	85.206797
1246.000000	85.308277
1245.000000	85.896849
1244.000000	87.101599
1243.000000	88.590941
1242.000000	89.853100
1241.000000	90.508544
1240.000000	90.405054
1239.000000	89.601301
1238.000000	88.394487
1237.000000	87.316738
1236.000000	86.939506
1235.000000	87.531675
1234.000000	88.855500
1233.000000	90.322756
1232.000000	91.383807
1231.000000	91.827885
1230.000000	91.835458
1229.000000	91.798981
1228.000000	92.063053
1227.000000	92.729126
1226.000000	93.632736
1225.000000	94.502562
1224.000000	95.161729
1223.000000	95.594061
1222.000000	95.868971
1221.000000	96.050428
1220.000000	96.174084
1219.000000	96.264222
1218.000000	96.336379
1217.000000	96.390256
1216.000000	96.424341
1215.000000	96.447911
1214.000000	96.471811
1213.000000	96.494712
1212.000000	96.509429
1211.000000	96.516503
1210.000000	96.520305
1209.000000	96.519505
1208.000000	96.511738
1207.000000	96.501141
1206.000000	96.491791
1205.000000	96.479442
1204.000000	96.459513
1203.000000	96.437111
1202.000000	96.418872
1201.000000	96.400893
1200.000000	96.375685
1199.000000	96.346447
1198.000000	96.323271
1197.000000	96.308877
1196.000000	96.298824
1195.000000	96.292697
1194.000000	96.294249
1193.000000	96.302239
1192.000000	96.311776
1191.000000	96.323586
1190.000000	96.343144
1189.000000	96.370957
1188.000000	96.401133
1187.000000	96.428736
1186.000000	96.451587
1185.000000	96.466738
1184.000000	96.472616
1183.000000	96.473393
1182.000000	96.473573
1181.000000	96.469902
1180.000000	96.456200
1179.000000	96.434502
1178.000000	96.413271
1177.000000	96.395455
1176.000000	96.377495
1175.000000	96.359159
1174.000000	96.345014
1173.000000	96.335721
1172.000000	96.326856
1171.000000	96.317611
1170.000000	96.312747
1169.000000	96.314753
1168.000000	96.320674
1167.000000	96.327623
1166.000000	96.334577
1165.000000	96.338185
1164.000000	96.333130
1163.000000	96.317570
1162.000000	96.291869
1161.000000	96.251905
1160.000000	96.191198
1159.000000	96.108271
1158.000000	96.005192
1157.000000	95.876939
1156.000000	95.709106
1155.000000	95.487803
1154.000000	95.201378
1153.000000	94.839638
1152.000000	94.409008
1151.000000	93.959794
1150.000000	93.583500
1149.000000	93.367270
1148.000000	93.340939
1147.000000	93.461755
1146.000000	93.643080
1145.000000	93.798450
1144.000000	93.862216
1143.000000	93.775625
1142.000000	93.471874
1141.000000	92.892125
1140.000000	92.034958
1139.000000	90.969856
1138.000000	89.789296
1137.000000	88.552291
1136.000000	87.301601
1135.000000	86.137397
1134.000000	85.241912
1133.000000	84.806848
1132.000000	84.920528
1131.000000	85.513316
1130.000000	86.380315
1129.000000	87.274092
1128.000000	87.987229
1127.000000	88.376755
1126.000000	88.344663
1125.000000	87.825353
1124.000000	86.801895
1123.000000	85.341618
1122.000000	83.619195
1121.000000	81.865404
1120.000000	80.274835
1119.000000	78.911290
1118.000000	77.679886
1117.000000	76.410184
1116.000000	74.977480
1115.000000	73.357303
1114.000000	71.584526
1113.000000	69.707270
1112.000000	67.793361
1111.000000	65.944387
1110.000000	64.262137
1109.000000	62.801878
1108.000000	61.552609
1107.000000	60.423883
1106.000000	59.252426
1105.000000	57.878212
1104.000000	56.248915
1103.000000	54.442963
1102.000000	52.594786
1101.000000	50.840893
1100.000000	49.330597
1099.000000	48.208527
1098.000000	47.556712
1097.000000	47.371667
1096.000000	47.626751
1095.000000	48.304218
1094.000000	49.347791
1093.000000	50.638764
1092.000000	52.001455
1091.000000	53.224214
1090.000000	54.118071
1089.000000	54.637105
1088.000000	54.953521
1087.000000	55.356857
1086.000000	56.058320
1085.000000	57.101031
1084.000000	58.419911
1083.000000	59.905990
1082.000000	61.416480
1081.000000	62.807537
1080.000000	64.009724
1079.000000	65.055373
1078.000000	66.035851
1077.000000	67.047076
1076.000000	68.161318
1075.000000	69.395744
1074.000000	70.694037
1073.000000	71.961982
1072.000000	73.134803
1071.000000	74.200318
1070.000000	75.174082
1069.000000	76.082819
1068.000000	76.959900
1067.000000	77.819354
1066.000000	78.621429
1065.000000	79.268104
1064.000000	79.649678
1063.000000	79.697853
1062.000000	79.438824
1061.000000	79.025573
1060.000000	78.698458
1059.000000	78.661864
1058.000000	78.965639
1057.000000	79.519705
1056.000000	80.215425
1055.000000	81.006535
1054.000000	81.878900
1053.000000	82.796532
1052.000000	83.700852
1051.000000	84.540517
1050.000000	85.288119
1049.000000	85.939403
1048.000000	86.509386
1047.000000	87.019093
1046.000000	87.480583
1045.000000	87.895243
1044.000000	88.269722
1043.000000	88.619777
1042.000000	88.954222
1041.000000	89.268829
1040.000000	89.559847
1039.000000	89.835421
1038.000000	90.105411
1037.000000	90.368116
1036.000000	90.616003
1035.000000	90.847334
1034.000000	91.065600
1033.000000	91.271804
1032.000000	91.463564
1031.000000	91.639512
1030.000000	91.799403
1029.000000	91.944141
1028.000000	92.079795
1027.000000	92.216148
1026.000000	92.356754
1025.000000	92.493560
1024.000000	92.616661
1023.000000	92.725705
1022.000000	92.827202
1021.000000	92.925569
1020.000000	93.021796
1019.000000	93.117231
1018.000000	93.212670
1017.000000	93.305725
1016.000000	93.394248
1015.000000	93.480219
1014.000000	93.566397
1013.000000	93.652204
1012.000000	93.737052
1011.000000	93.824545
1010.000000	93.918279
1009.000000	94.015756
1008.000000	94.111282
1007.000000	94.202612
1006.000000	94.290362
1005.000000	94.372663
1004.000000	94.445094
1003.000000	94.505399
1002.000000	94.555039
1001.000000	94.597826
1000.000000	94.639631
999.000000	94.686050
998.000000	94.736710
997.000000	94.784237
996.000000	94.822968
995.000000	94.855426
994.000000	94.886121
993.000000	94.913660
992.000000	94.934591
991.000000	94.951396
990.000000	94.969377
989.000000	94.988146
988.000000	95.003279
987.000000	95.013636
986.000000	95.019165
985.000000	95.013957
984.000000	94.989804
983.000000	94.946505
982.000000	94.889986
981.000000	94.819835
980.000000	94.728158
979.000000	94.608171
978.000000	94.455295
977.000000	94.257891
976.000000	93.994988
975.000000	93.647429
974.000000	93.194490
973.000000	92.598903
972.000000	91.801246
971.000000	90.711987
970.000000	89.204239
969.000000	87.097622
968.000000	84.215622
967.000000	80.511726
966.000000	76.149689
965.000000	71.472671
964.000000	66.893651
963.000000	62.821841
962.000000	59.638912
961.000000	57.710467
960.000000	57.313670
959.000000	58.496393
958.000000	60.973053
957.000000	64.207078
956.000000	67.647632
955.000000	70.870139
954.000000	73.574697
953.000000	75.526214
952.000000	76.589164
951.000000	76.858009
950.000000	76.733517
949.000000	76.777850
948.000000	77.397867
947.000000	78.627250
946.000000	80.184593
945.000000	81.742085
944.000000	83.134549
943.000000	84.357948
942.000000	85.454630
941.000000	86.447076
940.000000	87.339373
939.000000	88.131611
938.000000	88.819586
937.000000	89.404769
936.000000	89.901470
935.000000	90.330164
934.000000	90.705673
933.000000	91.039465
932.000000	91.349069
931.000000	91.649666
930.000000	91.940629
929.000000	92.210154
928.000000	92.450665
927.000000	92.663762
926.000000	92.852424
925.000000	93.015762
924.000000	93.146155
923.000000	93.221736
922.000000	93.213819
921.000000	93.121386
920.000000	93.002864
919.000000	92.954059
918.000000	93.040552
917.000000	93.250611
916.000000	93.514500
915.000000	93.762546
914.000000	93.962348
913.000000	94.116777
912.000000	94.241882
911.000000	94.349766
910.000000	94.444865
909.000000	94.529910
908.000000	94.610009
907.000000	94.689599
906.000000	94.767180
905.000000	94.838305
904.000000	94.904004
903.000000	94.971863
902.000000	95.047494
901.000000	95.127738
900.000000	95.203375
899.000000	95.265942
898.000000	95.312509
897.000000	95.347197
896.000000	95.378776
895.000000	95.413602
894.000000	95.450477
893.000000	95.484129
892.000000	95.512896
891.000000	95.539417
890.000000	95.565511
889.000000	95.591474
888.000000	95.619316
887.000000	95.650657
886.000000	95.681465
885.000000	95.705561
884.000000	95.724367
883.000000	95.746465
882.000000	95.774737
881.000000	95.801147
880.000000	95.817645
879.000000	95.826018
878.000000	95.832065
877.000000	95.834452
876.000000	95.824905
875.000000	95.794879
874.000000	95.738608
873.000000	95.655753
872.000000	95.559724
871.000000	95.480175
870.000000	95.447843
869.000000	95.472373
868.000000	95.536957
867.000000	95.613715
866.000000	95.681220
865.000000	95.730661
864.000000	95.761551
863.000000	95.775014
862.000000	95.769960
861.000000	95.744209
860.000000	95.698456
859.000000	95.637705
858.000000	95.566409
857.000000	95.479870
856.000000	95.361076
855.000000	95.182578
854.000000	94.906366
853.000000	94.478581
852.000000	93.817342
851.000000	92.821118
850.000000	91.414063
849.000000	89.631032
848.000000	87.684808
847.000000	85.928803
846.000000	84.681746
845.000000	84.010984
844.000000	83.654555
843.000000	83.165142
842.000000	82.165953
841.000000	80.530600
840.000000	78.379293
839.000000	75.977793
838.000000	73.678927
837.000000	71.919356
836.000000	71.139146
835.000000	71.574230
834.000000	73.101666
833.000000	75.317095
832.000000	77.784378
831.000000	80.208902
830.000000	82.438822
829.000000	84.399389
828.000000	86.064157
827.000000	87.456504
826.000000	88.627544
825.000000	89.621833
824.000000	90.461430
823.000000	91.158787
822.000000	91.727483
821.000000	92.185956
820.000000	92.557936
819.000000	92.866197
818.000000	93.124827
817.000000	93.337775
816.000000	93.508406
815.000000	93.646535
814.000000	93.763525
813.000000	93.866280
812.000000	93.957570
811.000000	94.037770
810.000000	94.104456
809.000000	94.155522
808.000000	94.195618
807.000000	94.234310
806.000000	94.276310
805.000000	94.319561
804.000000	94.364308
803.000000	94.416402
802.000000	94.477380
801.000000	94.538288
800.000000	94.589115
799.000000	94.630341
798.000000	94.670534
797.000000	94.715127
796.000000	94.761575
795.000000	94.803995
794.000000	94.839857
793.000000	94.873006
792.000000	94.909876
791.000000	94.951435
790.000000	94.991425
789.000000	95.025756
788.000000	95.059387
787.000000	95.097176
786.000000	95.131967
785.000000	95.151833
784.000000	95.158202
783.000000	95.165881
782.000000	95.183613
781.000000	95.205204
780.000000	95.222371
779.000000	95.235712
778.000000	95.248778
777.000000	95.261200
776.000000	95.273820
775.000000	95.292061
774.000000	95.317066
773.000000	95.339776
772.000000	95.350133
771.000000	95.347325
770.000000	95.336571
769.000000	95.321505
768.000000	95.304375
767.000000	95.288221
766.000000	95.273813
765.000000	95.259577
764.000000	95.248137
763.000000	95.246170
762.000000	95.253171
761.000000	95.257459
760.000000	95.249837
759.000000	95.235397
758.000000	95.225163
757.000000	95.220687
756.000000	95.213699
755.000000	95.197566
754.000000	95.172742
753.000000	95.143433
752.000000	95.114759
751.000000	95.091589
750.000000	95.075991
749.000000	95.067688
748.000000	95.069478
747.000000	95.088561
746.000000	95.129016
745.000000	95.185254
744.000000	95.244942
743.000000	95.296132
742.000000	95.331397
741.000000	95.350315
740.000000	95.359910
739.000000	95.368131
738.000000	95.375412
737.000000	95.377674
736.000000	95.377500
735.000000	95.383752
734.000000	95.397096
733.000000	95.404010
732.000000	95.391108
731.000000	95.359922
730.000000	95.323700
729.000000	95.294640
728.000000	95.277838
727.000000	95.270263
726.000000	95.260493
725.000000	95.237322
724.000000	95.203804
723.000000	95.176064
722.000000	95.163942
721.000000	95.160197
720.000000	95.152593
719.000000	95.138444
718.000000	95.121087
717.000000	95.101111
716.000000	95.078737
715.000000	95.057612
714.000000	95.038270
713.000000	95.014260
712.000000	94.982338
711.000000	94.949380
710.000000	94.921887
709.000000	94.894816
708.000000	94.859836
707.000000	94.819189
706.000000	94.781929
705.000000	94.751876
704.000000	94.727287
703.000000	94.706730
702.000000	94.687798
701.000000	94.664731
700.000000	94.634497
699.000000	94.602985
698.000000	94.576983
697.000000	94.554043
696.000000	94.527128
695.000000	94.494772
694.000000	94.461218
693.000000	94.429081
692.000000	94.397285
691.000000	94.364633
690.000000	94.329044
689.000000	94.286468
688.000000	94.235181
687.000000	94.178263
686.000000	94.120446
685.000000	94.065681
684.000000	94.018115
683.000000	93.979622
682.000000	93.943915
681.000000	93.900358
680.000000	93.847289
679.000000	93.795273
678.000000	93.751935
677.000000	93.708381
676.000000	93.651043
675.000000	93.581952
674.000000	93.515411
673.000000	93.462301
672.000000	93.426619
671.000000	93.408052
670.000000	93.395542
669.000000	93.355264
668.000000	93.253902
667.000000	93.119530
666.000000	93.002166
665.000000	92.892787
664.000000	92.774758
663.000000	92.648769
662.000000	92.521950
661.000000	92.392655
660.000000	92.258123
659.000000	92.126142
658.000000	92.002095
657.000000	91.871754
656.000000	91.718339
655.000000	91.545185
654.000000	91.363680
653.000000	91.172645
652.000000	90.966981
651.000000	90.750445
650.000000	90.524368
649.000000	90.278866
648.000000	90.011330
647.000000	89.737935
646.000000	89.470959
645.000000	89.202620
644.000000	88.923718
643.000000	88.640832
642.000000	88.361636
641.000000	88.082290
640.000000	87.804912
639.000000	87.547476
638.000000	87.319928
637.000000	87.111927
636.000000	86.919502
635.000000	86.760081
634.000000	86.645422
633.000000	86.562675
632.000000	86.497875
631.000000	86.452807
630.000000	86.429508
629.000000	86.423152
628.000000	86.441807
627.000000	86.505174
626.000000	86.610567
625.000000	86.727838
624.000000	86.840235
623.000000	86.962032
622.000000	87.103616
621.000000	87.249897
620.000000	87.387458
619.000000	87.526251
618.000000	87.677390
617.000000	87.832918
616.000000	87.982611
615.000000	88.129565
614.000000	88.274991
613.000000	88.409192
612.000000	88.530855
611.000000	88.655926
610.000000	88.793920
609.000000	88.932074
608.000000	89.054812
607.000000	89.161315
606.000000	89.254008
605.000000	89.330631
604.000000	89.398278
603.000000	89.473714
602.000000	89.557740
601.000000	89.629247
600.000000	89.677391
599.000000	89.719867
598.000000	89.773829
597.000000	89.832014
596.000000	89.885653
595.000000	89.948060
594.000000	90.032791
593.000000	90.125989
592.000000	90.203127
591.000000	90.262160
590.000000	90.315685
589.000000	90.360139
588.000000	90.379606
587.000000	90.373955
586.000000	90.364793
585.000000	90.375777
584.000000	90.419670
583.000000	90.500321
582.000000	90.610281
581.000000	90.728449
580.000000	90.832284
579.000000	90.913647
578.000000	90.975146
577.000000	91.018602
576.000000	91.048250
575.000000	91.075388
574.000000	91.107791
573.000000	91.141186
572.000000	91.169541
571.000000	91.194828
570.000000	91.222506
569.000000	91.256292
568.000000	91.302191
567.000000	91.363080
566.000000	91.423103
565.000000	91.456340
564.000000	91.458174
563.000000	91.455476
562.000000	91.474608
561.000000	91.511433
560.000000	91.542712
559.000000	91.553867
558.000000	91.547333
557.000000	91.534999
556.000000	91.529468
555.000000	91.531422
554.000000	91.519863
553.000000	91.470015
552.000000	91.388055
551.000000	91.313074
550.000000	91.278688
549.000000	91.288008
548.000000	91.336166
547.000000	91.431112
546.000000	91.570566
545.000000	91.718630
544.000000	91.827129
543.000000	91.867510
542.000000	91.833459
541.000000	91.732375
540.000000	91.582229
539.000000	91.393398
538.000000	91.143395
537.000000	90.797907
536.000000	90.377088
535.000000	89.973287
534.000000	89.642151
533.000000	89.286715
532.000000	88.705493
531.000000	87.781168
530.000000	86.621056
529.000000	85.494441
528.000000	84.674460
527.000000	84.357492
526.000000	84.608910
525.000000	85.306923
524.000000	86.233065
523.000000	87.219066
522.000000	88.156803
521.000000	88.959947
520.000000	89.578651
519.000000	90.021046
518.000000	90.322252
517.000000	90.512448
516.000000	90.627096
515.000000	90.709746
514.000000	90.780436
513.000000	90.829950
512.000000	90.855264
511.000000	90.874706
510.000000	90.897108
509.000000	90.903331
508.000000	90.875359
507.000000	90.825452
506.000000	90.774341
505.000000	90.718985
504.000000	90.647419
503.000000	90.564340
502.000000	90.486077
501.000000	90.417807
500.000000	90.349660
499.000000	90.266682
498.000000	90.150859
497.000000	90.000882
496.000000	89.856950
495.000000	89.769606
494.000000	89.734968
493.000000	89.690391
492.000000	89.592238
491.000000	89.465705
490.000000	89.348086
489.000000	89.234781
488.000000	89.112987
487.000000	89.001654
486.000000	88.915305
485.000000	88.820106
484.000000	88.678459
483.000000	88.520215
482.000000	88.410116
481.000000	88.365057
480.000000	88.354638
479.000000	88.352523
478.000000	88.345102
477.000000	88.319374
476.000000	88.282826
475.000000	88.271256
474.000000	88.300888
473.000000	88.332903
472.000000	88.321212
471.000000	88.283650
470.000000	88.261548
469.000000	88.254260
468.000000	88.247699
467.000000	88.254237
466.000000	88.288818
465.000000	88.340741
464.000000	88.399319
463.000000	88.474880
462.000000	88.570378
461.000000	88.665578
460.000000	88.750082
459.000000	88.828070
458.000000	88.878071
457.000000	88.872412
456.000000	88.853740
455.000000	88.882741
454.000000	88.936446
453.000000	88.940669
452.000000	88.895832
451.000000	88.900682
450.000000	89.001228
449.000000	89.123403
448.000000	89.186721
447.000000	89.204668
446.000000	89.229813
445.000000	89.255757
444.000000	89.249477
443.000000	89.225927
442.000000	89.221144
441.000000	89.233532
440.000000	89.256029
439.000000	89.302503
438.000000	89.348659
437.000000	89.308404
436.000000	89.154543
435.000000	89.018139
434.000000	89.034010
433.000000	89.156250
432.000000	89.230107
431.000000	89.176604
430.000000	89.057865
429.000000	88.973460
428.000000	88.969499
427.000000	89.036732
426.000000	89.110122
425.000000	89.084721
424.000000	88.919603
423.000000	88.727926
422.000000	88.661217
421.000000	88.736273
420.000000	88.830711
419.000000	88.777217
418.000000	88.566366
417.000000	88.372991
416.000000	88.306289
415.000000	88.374157
414.000000	88.502685
413.000000	88.573433
412.000000	88.560340
411.000000	88.549224
410.000000	88.561900
409.000000	88.479951
408.000000	88.251546
407.000000	88.045492
406.000000	88.052276
405.000000	88.218661
404.000000	88.359788
403.000000	88.433749
402.000000	88.499602
401.000000	88.537985
400.000000	88.537062
